LabVIEW Measurement														
Writer_Version	2													
Reader_Version	2													
Separator	Tab													
Decimal_Separator	.													
Multi_Headings	No													
X_Columns	One													
Time_Pref	Absolute													
Operator	Will													
Description	averaged data every 10 minutes													
Date	7/25/2012													
Time	12:09:51 AM													
														
														
														
														
														
														
														
														
														
														
		X_Value	Motor 1 Power (Watts)	Motor 1 RPM	MC1 Current (Amps)	MC1 Voltage (V)	MC1 Power (Watts)	Tank Temp (F)	Motor 1 Temp (F)	Power Setting (%)	Error Status	Error Code	Elapsed Time (s)	Comment
														
														
Date	7/25/2012	0	2.795865	19173.78206	0.512807	7.461199	3.826154	101.839775	99.37302	100	0	0	286.269111	"new motor, in water, impeller on"
Time	12:09:51 AM													
Date	7/25/2012	0	2.770125	19261.52323	0.509495	7.440212	3.79074	102.336236	99.979844	100	0	0	286.104632	"motor 2nd run, previously buffer error, impeller in water"
Time	12:10:32 AM													
Date	7/25/2012	0	2.761654	19236.12058	0.50925	7.422818	3.780056	101.735506	99.185476	100	0	0	290.805966	"3rd run, after buffer errors, impeller in water"
Time	12:11:27 AM	600.22333	2.772373	19339.42153	0.510482	7.440799	3.79838	101.697404	99.594976	100	0	0	878.540334	
		1200.234649	2.923333	19608.30956	0.520127	7.606317	3.987283	102.203214	99.85446	100	0	0	1476.607135	
		1800.234967	2.780331	19468.63342	0.509435	7.424476	3.804325	101.877231	99.535906	100	0	0	2074.692784	
		2400.248286	2.676433	19314.72478	0.501904	7.31112	3.669466	102.229567	99.853499	100	0	0	2673.557393	
		3000.498619	2.6778	19262.58471	0.501675	7.308943	3.666702	101.701437	99.490408	100	0	0	3276.702483	
		3600.74495	2.670859	19345.42118	0.501445	7.306406	3.663746	102.202611	99.8666	100	0	0	3879.734891	
		4200.986282	2.66811	19357.42732	0.501739	7.303681	3.664532	101.648935	99.436359	100	0	0	4477.9118	
		4800.9866	2.663324	19399.80305	0.501408	7.302254	3.661396	102.102691	99.875677	100	0	0	5075.937632	
		5401.243933	2.668862	19296.09014	0.5011	7.301175	3.658606	101.52629	99.364271	100	0	0	5678.896848	
		6001.491266	2.662681	19324.95385	0.500239	7.300579	3.652016	102.089767	100.04324	100	0	0	6282.183253	
		6601.495584	2.66465	19363.27741	0.500738	7.298507	3.654628	101.476458	99.425458	100	0	0	6880.35728	
		7201.737916	2.659979	19389.33051	0.500187	7.297933	3.650318	101.942731	99.985848	100	0	0	7478.268156	
		7801.998249	2.663091	19289.28205	0.499724	7.297069	3.646505	101.665118	99.529698	100	0	0	8076.035109	
		8402.240581	2.659391	19335.56775	0.49968	7.296056	3.645679	101.796727	99.875647	100	0	0	8678.792932	
		9002.244899	2.662267	19324.97055	0.500142	7.29404	3.648043	101.623152	99.552267	100	0	0	9281.74675	
		9602.487231	2.657516	19362.3766	0.499857	7.293186	3.645534	101.58319	99.735098	100	0	0	9879.696239	
		10202.74956	2.66061	19313.73734	0.500518	7.291032	3.649278	101.816604	99.757113	100	0	0	10477.65775	
		10802.9889	2.658323	19359.83725	0.500192	7.290655	3.646713	101.583891	99.656018	100	0	0	11075.50584	
		11402.99021	2.655893	19334.12636	0.500198	7.289059	3.645962	101.961217	99.81463	100	0	0	11679.52761	
		12003.23455	2.655027	19379.19519	0.499952	7.288163	3.643719	101.593442	99.504603	100	0	0	12282.59602	
		12603.23986	2.653888	19324.7593	0.500014	7.287128	3.643648	102.109145	99.946512	100	0	0	12880.59475	
		13203.4932	2.655512	19308.64061	0.499996	7.286365	3.643137	101.5688	99.40957	100	0	0	13478.50115	
		13803.74153	2.651122	19413.03604	0.499209	7.28676	3.6376	102.228345	99.961259	100	0	0	14076.75111	
		14403.74485	2.651498	19400.14282	0.499335	7.285889	3.638088	101.620298	99.352526	100	0	0	14680.3058	
		15003.96718	2.649157	19391.9449	0.498996	7.285534	3.635432	102.319465	99.987804	100	0	0	15282.79735	
		15603.9885	2.65223	19371.94565	0.499631	7.284132	3.639363	101.780521	99.461584	100	0	0	15880.37312	
		16204.24383	2.65285	19215.51005	0.499568	7.283435	3.638556	102.22137	100.053767	100	0	0	16478.17011	
		16804.24615	2.656504	19249.44484	0.500719	7.281007	3.645727	101.705187	99.435976	100	0	0	17080.91259	
		17404.24947	2.648832	19342.13559	0.499231	7.282447	3.635609	102.175476	99.969618	100	0	0	17684.23019	
		18004.4898	2.651996	19349.59213	0.499474	7.281442	3.63688	101.775387	99.447733	100	0	0	18282.36139	
		18604.49412	2.649558	19371.83121	0.499387	7.28069	3.635869	102.120374	99.887882	100	0	0	18881.03563	
		19204.73345	2.6487	19382.28549	0.499852	7.279326	3.638569	101.821346	99.47651	100	0	0	19478.72048	
		19804.73677	2.6499	19310.92849	0.499672	7.278857	3.637031	102.005962	99.823747	100	0	0	20081.66737	
		20404.9971	2.648605	19314.60318	0.499729	7.278326	3.637175	101.908343	99.536085	100	0	0	20684.64964	
		21004.99842	2.649395	19310.85947	0.499094	7.278633	3.632712	101.895386	99.679744	100	0	0	21282.83994	
		21605.23875	2.649008	19368.45454	0.498804	7.278574	3.630569	102.051158	99.682221	100	0	0	21880.84965	
		22205.24507	2.645586	19392.85614	0.499296	7.27732	3.633525	101.796639	99.627192	100	0	0	22479.47162	
		22805.4914	2.64677	19336.2069	0.499138	7.276683	3.632057	102.115338	99.811553	100	0	0	23082.94299	
		23405.74873	2.644728	19387.08622	0.499225	7.276367	3.632526	101.727603	99.545683	100	0	0	23685.47995	
		24005.75105	2.645534	19309.69355	0.498915	7.276223	3.630208	102.183136	99.885796	100	0	0	24283.44197	
		24605.99438	2.644633	19429.99214	0.498719	7.276604	3.628966	101.784677	99.592467	100	0	0	24882.23469	
		25205.9947	2.641663	19432.55647	0.498189	7.276834	3.625222	102.064962	99.721231	100	0	0	25480.17025	
		25805.99502	2.645002	19367.71853	0.499349	7.275324	3.632913	101.961105	99.74177	100	0	0	26082.75943	
		26406.23435	2.647916	19314.66678	0.499788	7.275027	3.635956	101.939618	99.563087	100	0	0	26685.76369	
		27006.23767	2.646624	19294.75181	0.499166	7.276298	3.632072	101.883733	99.605161	100	0	0	27283.94116	
		27606.23799	2.644944	19350.73158	0.499246	7.27621	3.632605	101.959827	99.566036	100	0	0	27882.0519	
		28206.49432	2.646011	19312.89555	0.499234	7.27638	3.6326	101.996594	99.778492	100	0	0	28480.14972	
		28806.49464	2.647138	19320.06475	0.499188	7.27636	3.632257	101.872017	99.394155	100	0	0	29083.05912	
		29406.72697	2.645885	19374.97557	0.499229	7.276329	3.632534	102.239965	99.953714	100	0	0	29686.42463	
		30006.73629	2.640459	19404.56101	0.498511	7.277049	3.627669	102.317216	99.816688	100	0	0	30283.89167	
		30606.73861	2.64411	19380.55941	0.498614	7.276944	3.62837	102.190991	99.792246	100	0	0	30881.95052	
		31206.98494	2.645148	19327.26153	0.499002	7.276264	3.630854	102.356542	99.866454	100	0	0	31480.07754	
		31806.98726	2.645062	19386.9191	0.499028	7.276186	3.631008	102.115483	99.716421	100	0	0	32083.98928	
		32407.22859	2.646405	19293.19824	0.49865	7.276509	3.628421	102.475774	99.915225	100	0	0	32687.84972	
		33007.24891	2.64156	19449.27675	0.498628	7.276153	3.628077	102.175117	99.655399	100	0	0	33286.24232	
		33607.24923	2.648859	19270.9008	0.499088	7.275176	3.630938	102.490589	99.853923	100	0	0	33884.67506	
		34207.49456	2.6438	19382.90848	0.49903	7.274997	3.630425	102.173162	99.615313	100	0	0	34482.04797	
		34807.73789	2.645345	19244.52181	0.498697	7.275056	3.628033	102.678137	100.030115	100	0	0	35084.73812	
		35407.99822	2.643234	19342.22258	0.498583	7.275217	3.627287	102.224043	99.633987	100	0	0	35687.67464	
		36007.99854	2.643165	19364.37142	0.498447	7.274892	3.626131	102.412621	99.782224	100	0	0	36285.12	
		36608.24187	2.643017	19353.53468	0.498911	7.273971	3.629053	102.083818	99.526243	100	0	0	36883.41626	
		37208.24419	2.641906	19435.71104	0.497937	7.274988	3.62247	102.601613	99.944933	100	0	0	37485.99289	
		37808.48452	2.64449	19328.21536	0.499201	7.272956	3.630653	102.155479	99.492952	100	0	0	38088.80598	
		38408.48484	2.639367	19408.91527	0.498212	7.27416	3.624057	102.680944	99.95127	100	0	0	38686.5602	
		39008.48716	2.642996	19328.23537	0.499116	7.272943	3.630019	102.150475	99.462252	100	0	0	39285.00045	
		39608.74849	2.643551	19352.68911	0.498556	7.273529	3.626248	102.776497	99.987462	100	0	0	39882.61578	
		40208.99382	2.642149	19360.05663	0.498704	7.27341	3.627265	102.212456	99.435592	100	0	0	40486.02209	
		40808.99414	2.643265	19348.38191	0.498914	7.273171	3.628679	102.809939	99.992823	100	0	0	41088.96207	
		41409.23647	2.643936	19338.60475	0.498364	7.273938	3.625058	102.32543	99.467695	100	0	0	41687.25149	
		42009.49381	2.641476	19348.23607	0.498204	7.274006	3.623927	102.888754	100.056521	100	0	0	42285.65796	
		42609.49312	2.64292	19370.00926	0.498598	7.273444	3.626513	102.383172	99.456353	100	0	0	42883.76864	
		43209.49244	2.642716	19335.46744	0.499351	7.272443	3.631488	103.018271	100.062979	100	0	0	43487.08829	
		43809.49876	2.640751	19409.25542	0.498245	7.274118	3.624274	102.419906	99.405349	100	0	0	44089.94158	
		44409.74409	2.63819	19462.19572	0.498078	7.274291	3.623155	103.119316	100.025527	100	0	0	44687.92444	
		45009.98542	2.641184	19440.78597	0.497692	7.275125	3.620765	102.576982	99.42914	100	0	0	45285.51444	
		45610.00274	2.644392	19329.81458	0.49804	7.274733	3.623096	103.216107	100.013729	100	0	0	45884.00909	
		46210.25408	2.645741	19298.50602	0.49887	7.273656	3.628597	102.594193	99.420882	100	0	0	46487.99728	
		46810.24839	2.641193	19369.7886	0.498186	7.274757	3.624163	103.152986	100.005044	100	0	0	47091.82755	
		47410.24871	2.646132	19315.88593	0.498556	7.274379	3.626672	102.656009	99.477439	100	0	0	47690.39523	
		48010.49304	2.641749	19383.58527	0.498136	7.275117	3.623987	103.102252	100.046629	100	0	0	48288.04843	
		48610.49636	2.645297	19357.72241	0.498937	7.274053	3.629276	102.537607	99.403378	100	0	0	48885.56837	
		49210.49168	2.646007	19271.84598	0.499187	7.273534	3.630837	103.174907	99.989189	100	0	0	49483.84833	
		49810.495	2.642052	19409.98166	0.498571	7.274925	3.627052	102.722929	99.467863	100	0	0	50086.62211	
		50410.73333	2.637792	19460.7657	0.498155	7.275152	3.624139	103.321063	100.123722	100	0	0	50689.99603	
		51010.73265	2.645558	19276.92864	0.498601	7.272585	3.626107	102.779561	99.479134	100	0	0	51287.81044	
		51610.73797	2.640213	19293.86906	0.498965	7.269669	3.627297	103.459902	100.078112	100	0	0	51885.80204	
		52210.9933	2.636644	19431.69105	0.497675	7.269035	3.617604	102.97476	99.572754	100	0	0	52488.57153	
		52810.99862	2.641349	19189.57875	0.497163	7.267812	3.613273	103.390491	100.078144	100	0	0	53091.70888	
		53411.00994	2.632329	19358.13443	0.497996	7.264915	3.617884	103.145115	99.738032	100	0	0	53690.05205	
		54011.23827	2.635428	19311.50154	0.497592	7.264281	3.614636	103.229373	99.998738	100	0	0	54288.06483	
		54611.4836	2.636309	19293.25297	0.497924	7.262465	3.61614	102.897685	99.522886	100	0	0	54886.45936	
		55211.48792	2.631659	19333.01123	0.49737	7.262241	3.612011	103.263842	99.990085	100	0	0	55484.54382	
		55811.74725	2.62971	19432.58428	0.49734	7.261686	3.611513	102.623184	99.207608	100	0	0	56087.86783	
		56411.99158	2.634227	19302.6526	0.497516	7.262087	3.612993	103.393375	99.882553	100	0	0	56690.84036	
		57012.23691	2.634542	19310.87643	0.497739	7.263294	3.615215	103.110662	99.575601	100	0	0	57288.79817	
		57612.23923	2.638397	19294.32694	0.498063	7.264847	3.618341	103.3312	99.899337	100	0	0	57886.17065	
		58212.49957	2.63788	19310.8495	0.498272	7.26582	3.620336	103.083833	99.493133	100	0	0	58489.22676	
		58812.7449	2.638403	19370.43399	0.498173	7.266867	3.620143	103.360617	99.865085	100	0	0	59092.07369	
		59412.98423	2.636789	19365.77067	0.498329	7.267658	3.621669	103.238516	99.654633	100	0	0	59690.5728	
		60013.24456	2.641315	19312.31532	0.498068	7.269284	3.620587	103.348492	99.873053	100	0	0	60288.59033	
		60613.49289	2.63934	19353.17792	0.498447	7.269734	3.623561	103.504658	99.789232	100	0	0	60891.35567	
		61213.73223	2.642308	19322.65083	0.498396	7.270431	3.623543	103.351458	99.772365	100	0	0	61494.18713	
		61813.73754	2.639424	19336.11824	0.49849	7.270167	3.624091	103.635508	99.817829	100	0	0	62092.04339	
		62413.73786	2.637048	19415.56092	0.497505	7.270446	3.617076	103.325708	99.606171	100	0	0	62689.72129	
		63013.99619	2.636486	19373.40766	0.497796	7.26788	3.617912	103.861066	100.011171	100	0	0	63287.9381	
		63613.99651	2.639291	19283.21034	0.498453	7.264626	3.621063	103.36794	99.569549	100	0	0	63891.4187	
		64214.23984	2.633637	19373.3454	0.497806	7.263874	3.615986	103.991854	100.117269	100	0	0	64494.32342	
		64814.48718	2.634093	19324.55803	0.497295	7.263343	3.612018	103.348247	99.416332	100	0	0	65092.3526	
		65414.74751	2.633675	19323.8327	0.497298	7.262017	3.611367	103.792779	99.77054	100	0	0	65690.09043	
		66014.74883	2.63259	19328.48575	0.497476	7.260842	3.612083	103.265065	99.452394	100	0	0	66288.03907	
		66614.99416	2.632501	19268.58167	0.497364	7.260158	3.610932	103.613217	99.729352	100	0	0	66891.12237	
		67215.23649	2.629189	19388.58981	0.497996	7.258325	3.614601	103.111982	99.30722	100	0	0	67494.74733	
		67815.23781	2.628886	19374.18007	0.49693	7.259421	3.607412	103.831828	100.01487	100	0	0	68093.44188	
		68415.48614	2.630914	19414.76293	0.496947	7.259261	3.607449	103.081571	99.354525	100	0	0	68691.90007	
		69015.74447	2.630709	19333.68402	0.497567	7.257833	3.611248	103.750226	100.073728	100	0	0	69289.38197	
		69615.98781	2.629655	19324.91592	0.497395	7.257923	3.61004	103.080644	99.304567	100	0	0	69892.1437	
		70216.24914	2.629665	19348.16311	0.497858	7.257041	3.612968	103.765073	99.871603	100	0	0	70495.20081	
		70816.49347	2.631535	19299.15035	0.497766	7.25696	3.612254	103.410308	99.461959	100	0	0	71093.49315	
		71416.7358	2.627353	19418.74851	0.497467	7.257248	3.610234	103.6778	99.821072	100	0	0	71691.67063	
		72016.73312	2.628716	19375.38735	0.49738	7.257052	3.609498	103.644083	99.583906	100	0	0	72294.34323	
		72616.73744	2.629732	19297.77684	0.496929	7.257677	3.606543	103.681548	99.642477	100	0	0	72897.03505	
		73216.99877	2.630014	19277.71171	0.497895	7.255728	3.61258	104.04557	99.72889	100	0	0	73495.15358	
		73817.00009	2.629205	19352.61905	0.49745	7.256225	3.609596	103.803242	99.500252	100	0	0	74093.57716	
Date	7/25/2012	74417.24142	2.630835	19320.06925	0.497906	7.255271	3.612434	104.337508	99.870104	100	0	0	74691.45029	
Time	12:11:27 AM	75017.25474	2.629767	19280.64254	0.49774	7.255562	3.611369	103.959329	99.425978	100	0	0	75294.45078	
		75617.48707	2.63243	19252.42065	0.498447	7.254216	3.61583	104.549393	100.023881	100	0	0	75897.42	
		76217.49039	2.630511	19342.40994	0.497148	7.255982	3.607288	104.014605	99.380238	100	0	0	76495.02228	
		76817.74472	2.627868	19392.28264	0.496931	7.256019	3.605733	104.591229	100.011986	100	0	0	77092.90775	
		77417.74904	2.628809	19356.48118	0.497509	7.254967	3.609402	104.164188	99.407182	100	0	0	77695.36282	
		78017.99237	2.62519	19375.77921	0.497072	7.255457	3.606472	104.50891	99.905839	100	0	0	78298.23925	
		78617.99469	2.631991	19215.77742	0.497821	7.254242	3.611301	104.422745	99.520638	100	0	0	78895.92918	
		79218.23602	2.628809	19301.55058	0.497136	7.255105	3.606766	104.574507	99.905171	100	0	0	79493.76263	
		79818.23634	2.627842	19350.57292	0.497293	7.254641	3.607665	104.309037	99.577052	100	0	0	80091.90769	
		80418.23466	2.628242	19311.27057	0.497274	7.254579	3.6075	104.22217	99.844209	100	0	0	80694.93437	
		81018.49899	2.633521	19156.83802	0.497315	7.254363	3.607686	104.1701	99.590902	100	0	0	81297.80085	
		81618.73933	2.62622	19329.86287	0.49779	7.253344	3.610634	104.184279	99.720335	100	0	0	81895.60297	
		82218.98366	2.630784	19187.33451	0.497966	7.252799	3.611636	104.11094	99.634671	100	0	0	82493.9126	
		82819.24399	2.632253	19245.66298	0.497418	7.253512	3.608018	104.09549	99.680477	100	0	0	83092.24322	
		83419.24931	2.628375	19319.02897	0.497525	7.253209	3.608641	104.198676	99.607717	100	0	0	83696.11056	24 hours!
		84019.49564	2.627709	19242.86177	0.4976	7.253016	3.609089	104.008005	99.481871	100	0	0	84299.72284	
		84619.73397	2.630295	19276.25709	0.497365	7.252813	3.607286	104.338242	99.809144	100	0	0	84897.57803	
		85219.73329	2.628496	19274.72545	0.497195	7.252749	3.606012	103.842242	99.397788	100	0	0	85496.2515	
		85819.99862	2.629026	19211.47182	0.498071	7.25098	3.611491	104.286106	99.955784	100	0	0	86093.88239	
		86420.24596	2.628653	19271.54336	0.497715	7.251486	3.609157	103.644307	99.342831	100	0	0	86696.87129	
		87020.48729	2.62659	19259.71042	0.497528	7.25142	3.607773	104.335879	99.92044	100	0	0	87299.66504	
		87620.74962	2.631401	19171.95051	0.498453	7.250272	3.613909	103.703518	99.315856	100	0	0	87897.1615	
		88220.99495	2.626451	19218.14197	0.497867	7.250813	3.609933	104.185126	99.916138	100	0	0	88495.24788	
		88821.00627	2.62892	19209.34713	0.497522	7.25092	3.60748	103.774053	99.360105	100	0	0	89098.48908	
		89421.2356	2.626647	19223.9752	0.497949	7.250175	3.610209	103.956341	99.75695	100	0	0	89701.89552	
		90021.49394	2.626161	19321.52463	0.497606	7.25059	3.607926	103.644227	99.451872	100	0	0	90299.60289	
		90621.74027	2.630659	19151.01783	0.497949	7.249914	3.610076	103.806094	99.629343	100	0	0	90898.23076	
		91221.74459	2.626754	19259.12266	0.496959	7.251315	3.603596	103.802297	99.621163	100	0	0	91496.76333	
		91821.99892	2.881014	19768.69798	0.519543	7.581652	3.941216	103.697321	99.589675	100	0	0	92099.70157	
		92421.98824	2.952554	19834.71365	0.525794	7.674751	4.035325	103.94534	99.685561	100	0	0	92702.6709	
		93022.24657	2.950554	19876.07443	0.525198	7.672836	4.029746	103.562316	99.479802	100	0	0	93300.79228	
		93622.24889	2.945991	19816.22508	0.525123	7.667681	4.026472	103.925311	99.712057	100	0	0	93898.92112	
		94222.49422	2.945387	19865.46914	0.524343	7.666642	4.019938	103.409933	99.397886	100	0	0	94496.8851	
		94822.73555	2.93628	19870.12853	0.523628	7.657175	4.0095	103.759678	99.768626	100	0	0	95099.7917	
		95422.73787	2.931685	19918.34671	0.524399	7.654403	4.01395	103.266678	99.292212	100	0	0	95702.28479	
		96022.9972	2.935872	19808.10357	0.523572	7.653641	4.007222	103.792551	99.93649	100	0	0	96299.67037	
		96622.99752	2.934246	19776.28397	0.523949	7.650068	4.008236	103.148831	99.340169	100	0	0	96897.22866	
		97222.99884	2.930705	19803.20986	0.524227	7.649275	4.009941	103.363421	99.82035	100	0	0	97499.75458	
		97823.24517	2.932646	19784.63284	0.524629	7.648105	4.012408	103.06674	99.663041	100	0	0	98102.91179	
		98423.4875	2.93148	19819.16333	0.524021	7.64848	4.00795	103.092197	99.85552	100	0	0	98701.40341	
		99023.74783	2.932914	19772.90329	0.523607	7.648231	4.004654	103.355744	99.817047	100	0	0	99299.51835	
		99623.99017	2.929938	19873.44151	0.523166	7.647874	4.00109	103.192785	99.683068	100	0	0	99897.73362	
		100223.9885	2.926306	19913.32378	0.523242	7.648452	4.001981	102.926362	99.384733	100	0	0	100501.4386	
		100823.9898	2.9297	19830.58207	0.523021	7.648438	4.000285	102.9397	99.571088	100	0	0	101104.1533	
		101424.2361	2.929493	19858.816	0.523375	7.647616	4.002557	102.784075	99.483648	100	0	0	101702.3694	
		102024.2375	2.928691	19868.15465	0.523656	7.646739	4.004241	102.78414	99.553684	100	0	0	102301.0895	
		102624.4968	2.927178	19860.39345	0.523981	7.645639	4.006151	102.900277	99.54306	100	0	0	102899.6409	
		103224.5121	2.92675	19910.31531	0.522947	7.646943	3.998936	102.721183	99.389087	100	0	0	103497.6636	
		103824.7414	2.92933	19796.07508	0.523184	7.645776	4.000141	102.903718	99.823058	100	0	0	104101.1442	
		104424.9888	2.921905	19925.29226	0.522999	7.644718	3.998168	102.371014	99.350369	100	0	0	104704.1005	
		105025.2461	2.927615	19867.57155	0.522675	7.644015	3.995319	102.319334	99.772463	100	0	0	105301.959	
		105625.2494	2.923271	19914.78778	0.523018	7.642954	3.997389	102.181653	99.26394	100	0	0	105900.1365	
		106225.4948	2.921953	19912.54342	0.522258	7.643741	3.991994	103.390653	99.786542	100	0	0	106498.5642	
		106825.7371	2.92156	19923.28978	0.52217	7.643688	3.991288	103.007245	99.595667	100	0	0	107102.0596	
		107425.9964	2.922449	19875.66371	0.52246	7.64314	3.993221	102.92249	99.900902	100	0	0	107704.9364	
		108025.9947	2.922144	19857.48249	0.52278	7.642091	3.99512	102.99798	99.691818	100	0	0	108303.8578	
		108626.2451	2.921311	19848.52364	0.522327	7.642411	3.991819	102.869002	99.805656	100	0	0	108902.5605	
		109226.4874	2.922952	19813.08845	0.523119	7.640048	3.996641	102.913331	99.848757	100	0	0	109501.0318	
		109826.7467	2.924579	19795.58361	0.52264	7.640201	3.993057	102.641758	99.379958	100	0	0	110103.6302	
		110426.748	2.92058	19917.96722	0.521928	7.641109	3.988093	103.974758	99.785972	100	0	0	110706.455	
		111026.9904	2.919363	19916.31582	0.522188	7.641149	3.990105	104.071809	99.402253	100	0	0	111304.6332	
		111627.2377	2.91986	19928.35236	0.522517	7.64024	3.992143	104.569814	99.883971	100	0	0	111902.9291	
		112227.513	2.924891	19795.36065	0.522861	7.639598	3.994439	103.768108	99.495632	100	0	0	112505.6178	
		112827.7424	2.920222	19915.31296	0.522584	7.639881	3.992468	103.796691	99.763322	100	0	0	113108.6744	
		113427.9827	2.923441	19807.35407	0.522669	7.639563	3.992952	103.536044	99.518112	100	0	0	113706.8259	
		114027.987	2.920727	19875.35029	0.522341	7.639375	3.990344	103.375171	99.674594	100	0	0	114304.6749	
		114628.2464	2.923483	19826.45975	0.522716	7.638903	3.992963	103.010921	99.55898	100	0	0	114902.6161	
		115228.2467	2.925534	19736.51349	0.523318	7.637582	3.996872	101.972996	99.623773	100	0	0	115505.751	
		115828.491	2.919493	19972.03715	0.521586	7.640077	3.984949	101.405596	99.424952	100	0	0	116109.0604	
		116428.7333	2.918653	19870.11219	0.522395	7.638664	3.990389	102.485602	99.866307	100	0	0	116706.8013	
		117028.7377	2.916519	19954.09338	0.521515	7.639747	3.984234	102.136932	99.409733	100	0	0	117304.4464	
		117628.741	2.920673	19818.0944	0.522727	7.637407	3.992264	102.028048	99.838051	100	0	0	117902.1628	
		118228.7513	2.924373	19796.41202	0.522821	7.637507	3.993039	101.811583	99.301971	100	0	0	118505.6933	
		118828.9986	2.921754	19798.71832	0.522869	7.637745	3.99352	102.431641	99.712823	100	0	0	119109.0052	
		119429.246	2.920601	19848.42896	0.522438	7.638545	3.99066	102.719553	99.833016	100	0	0	119706.4124	
		120029.4823	2.916849	19890.85863	0.522414	7.638614	3.990507	102.652456	99.800344	100	0	0	120303.7982	
		120629.4836	2.920818	19816.73105	0.522261	7.63924	3.989665	103.159283	99.909201	100	0	0	120906.8507	
		121229.7469	2.921804	19854.50117	0.522647	7.638884	3.992424	102.368651	99.62887	100	0	0	121509.8915	
		121829.9913	2.91941	19814.85043	0.52241	7.63913	3.990749	103.715024	100.055021	100	0	0	122108.0306	
		122430.2346	2.918538	19910.70126	0.522849	7.638387	3.993709	103.286203	99.68284	100	0	0	122705.9713	
		123030.2379	2.920412	19882.20888	0.522467	7.639006	3.991116	103.531529	99.86005	100	0	0	123303.8702	
		123630.4933	2.915474	19882.71113	0.52227	7.639372	3.989808	103.222553	99.667549	100	0	0	123907.8136	
		124230.7386	2.914483	19904.66093	0.52242	7.638845	3.990669	103.608405	99.950895	100	0	0	124510.5561	
		124830.7389	2.920595	19886.07446	0.522778	7.638099	3.993023	103.061688	99.514543	100	0	0	125108.5727	
		125430.7442	2.917735	19927.24142	0.521709	7.639599	3.985631	103.700014	100.059242	100	0	0	125707.1418	
		126030.9846	2.921834	19799.95544	0.522314	7.638619	3.989749	103.36624	99.698157	100	0	0	126304.7898	
		126630.9839	2.919098	19835.37453	0.522577	7.638145	3.991509	103.5607	100.105346	100	0	0	126907.5014	
		127231.2472	2.918477	19873.73749	0.522308	7.638506	3.989639	103.417284	99.670276	100	0	0	127511.1111	
		127831.4925	2.919006	19856.23116	0.522452	7.638474	3.990721	103.447043	100.032355	100	0	0	128109.1455	
		128431.4929	2.920843	19871.44964	0.522482	7.638493	3.990963	103.134766	99.574086	100	0	0	128706.6836	
		129031.7322	2.923541	19825.12647	0.522139	7.639291	3.988759	103.489048	100.000119	100	0	0	129309.1336	
		129631.9985	2.919959	19865.08308	0.522384	7.638855	3.990408	103.325186	99.680526	100	0	0	129911.9591	
		130232.2429	2.920485	19843.38639	0.52201	7.639591	3.987937	103.505405	99.907648	100	0	0	130509.5342	
		130832.4842	2.917375	19920.02142	0.521393	7.640586	3.983735	103.268243	99.729688	100	0	0	131107.4164	
		131432.7625	2.919523	19798.7275	0.522624	7.638728	3.992174	103.561309	99.910563	100	0	0	131710.8558	
		132032.9919	2.920198	19835.27757	0.523103	7.638229	3.995566	102.580372	99.696935	100	0	0	132313.9373	
		132633.2352	2.920207	19904.33632	0.5229	7.638394	3.994102	102.294546	99.844749	100	0	0	132912.1329	
		133233.2365	2.921382	19877.4132	0.522763	7.638862	3.993302	102.973241	99.708782	100	0	0	133510.1916	
		133833.4988	2.923143	19791.91336	0.522168	7.640082	3.989395	102.673529	99.857165	100	0	0	134108.1965	
		134433.4962	2.921481	19784.76194	0.522353	7.63993	3.990726	103.826662	99.667392	100	0	0	134706.9382	
		135033.4965	2.919857	19902.86866	0.521892	7.64082	3.987669	102.905096	99.757586	100	0	0	135310.6224	
		135633.4968	2.922448	19832.23724	0.522991	7.638977	3.995102	101.760931	99.855129	100	0	0	135913.8361	
		136233.4991	2.925372	19774.73079	0.522392	7.640107	3.991122	101.996366	99.761969	100	0	0	136511.904	
		136833.7304	2.920754	19823.71856	0.522328	7.640348	3.990758	103.11208	99.806064	100	0	0	137110.0596	
		137433.7368	2.91981	19849.65632	0.522214	7.640682	3.990063	101.750322	99.803897	100	0	0	137707.8061	
		138033.7421	2.921292	19892.35409	0.52254	7.640453	3.992429	101.737063	99.490729	100	0	0	138310.3553	
		138633.7444	2.921095	19864.99373	0.522879	7.640161	3.994869	102.553758	99.839811	100	0	0	138912.9552	
		139233.7447	2.920903	19894.84064	0.522809	7.640052	3.994272	102.166659	99.791137	100	0	0	139510.5472	
		139833.988	2.918468	19880.85496	0.522276	7.640724	3.990556	101.8403	99.820762	100	0	0	140109.0059	
		140434.2434	2.921725	19862.78658	0.522246	7.640001	3.989952	102.646886	99.831951	100	0	0	140711.9679	
		141034.2487	2.920706	19850.24447	0.52236	7.638772	3.990176	101.935038	99.890359	100	0	0	141314.9378	
		141634.491	2.917169	19857.72488	0.521957	7.637735	3.986552	101.700696	99.70228	100	0	0	141912.8027	
		142234.4873	2.921717	19770.17475	0.522392	7.636037	3.988993	102.844686	99.938511	100	0	0	142511.2547	
		142834.7377	2.91515	19890.69736	0.522079	7.635408	3.986276	103.050703	99.75607	100	0	0	143109.124	
		143434.999	2.915382	19877.2318	0.522161	7.634331	3.986336	103.109587	99.886255	100	0	0	143712.3762	
		144035.0103	2.910616	19947.59991	0.52182	7.633864	3.983492	102.858587	99.672395	100	0	0	144315.4286	
		144635.2417	2.911231	19880.87549	0.521376	7.634897	3.980638	102.957725	99.816036	100	0	0	144912.7922	
		145235.243	2.916443	19895.03961	0.521281	7.635916	3.980447	103.095277	99.878349	100	0	0	145510.1705	
		145835.4863	2.917942	19871.99828	0.521972	7.637225	3.986404	102.49098	99.624682	100	0	0	146108.6926	
		146435.7486	2.918756	19874.71937	0.521961	7.638906	3.987202	103.03138	100.149026	100	0	0	146712.4555	
		147035.75	2.921232	19853.07819	0.522801	7.639322	3.993833	102.47183	99.520507	100	0	0	147315.9967	
		147635.9913	2.91406	19957.5285	0.521883	7.64164	3.988024	103.352452	100.19151	100	0	0	147914.0511	
		148235.9946	2.926148	19844.1882	0.52263	7.641384	3.993604	102.848206	99.587953	100	0	0	148511.8152	
		148835.9949	2.918217	19903.57916	0.521577	7.641455	3.985597	103.547794	100.077802	100	0	0	149110.2986	
		149436.2383	2.920865	19915.00194	0.523016	7.637803	3.994684	102.96484	99.640389	100	0	0	149713.0971	
		150036.4966	2.915829	19843.14462	0.521454	7.638043	3.982878	103.584138	100.14119	100	0	0	150316.1664	
		150636.4939	2.921751	19873.4733	0.522405	7.635178	3.988643	102.486726	99.60081	100	0	0	150914.0899	
		151236.4972	2.913835	19886.18897	0.521234	7.635624	3.979932	103.297546	100.083766	100	0	0	151512.967	
		151836.7446	2.914939	19877.04541	0.521899	7.633473	3.983892	103.630945	99.726397	100	0	0	152111.2251	
		152436.7439	2.909844	19961.49045	0.520651	7.634286	3.974788	102.904807	100.090892	100	0	0	152713.8799	
		153036.9852	2.910099	19978.49642	0.521118	7.632459	3.977399	102.835119	99.810154	100	0	0	153316.6836	
		153636.9845	2.910829	19949.67387	0.521116	7.63132	3.976792	103.075964	99.883238	100	0	0	153914.4368	
		154236.9839	2.914899	19847.22791	0.521315	7.63048	3.977872	102.544452	99.401732	100	0	0	154512.4676	
		154836.9872	2.908543	19947.84557	0.521419	7.629621	3.978217	102.833114	99.836471	100	0	0	155110.581	
		155437.2485	2.911974	19918.80788	0.521947	7.628571	3.981695	102.628889	99.54452	100	0	0	155714.427	
		156037.4948	2.909847	19890.94488	0.521577	7.628926	3.979059	102.677261	99.780383	100	0	0	156317.8402	
		156637.7352	2.907622	19898.42834	0.521406	7.628702	3.977639	103.169936	99.636301	100	0	0	156915.759	
		157237.9925	2.908335	19959.63053	0.521122	7.628944	3.975595	103.119756	99.789622	100	0	0	157513.824	
		157837.9968	2.908489	19958.12847	0.520919	7.628778	3.973965	102.738409	99.472893	100	0	0	158112.2936	
		158438.2451	2.911784	19882.99425	0.521129	7.62804	3.975182	102.911314	99.731644	100	0	0	158714.779	
		159038.4875	2.904289	19985.2719	0.520447	7.628755	3.97035	103.017847	99.753528	100	0	0	159318.1199	
		159638.4878	2.90689	19962.06015	0.520699	7.62802	3.971888	102.784222	99.681031	100	0	0	159916.1791	
		160238.7431	2.910974	19861.69628	0.520914	7.62744	3.973225	103.217541	99.652189	100	0	0	160514.0686	
Date	7/25/2012	160838.9925	2.907175	19872.82944	0.520892	7.627737	3.973218	102.730587	99.544755	100	0	0	161112.0352	
Time	12:11:27 AM	161438.9948	2.908593	19905.01459	0.52109	7.627604	3.974658	102.596949	99.77377	100	0	0	161715.3671	
		162039.2351	2.914912	19809.76354	0.521967	7.626552	3.980796	101.766342	99.404404	100	0	0	162318.6032	
		162639.2354	2.906557	19967.7652	0.521123	7.627676	3.974938	101.752294	99.877828	100	0	0	162916.5776	
		163239.2338	2.911248	19877.01503	0.521228	7.627296	3.975546	100.535519	99.335166	100	0	0	163514.8908	
		163839.4941	2.911484	19789.83261	0.521468	7.626413	3.976919	101.556772	99.951792	100	0	0	164112.7251	
		164439.4994	2.90734	19871.27929	0.521641	7.625782	3.977904	101.114087	99.407695	100	0	0	164715.9721	
		165039.4997	2.912085	19775.43293	0.521425	7.625885	3.976316	101.689662	99.960803	100	0	0	165319.0607	
		165639.7401	2.906357	19971.80504	0.520582	7.624009	3.968905	101.317475	99.460851	100	0	0	165917.2012	
		166239.9844	2.902464	19894.92854	0.521057	7.618414	3.969607	101.979465	99.831484	100	0	0	166515.5275	almost 48 h
		166839.9887	2.908536	19769.37969	0.521558	7.618174	3.973309	102.118646	99.507373	100	0	0	167113.8366	
		167439.988	2.909104	19755.14912	0.522048	7.617765	3.976819	102.189907	99.803109	100	0	0	167716.5826	
		168040.2444	2.906672	19836.18667	0.521419	7.618773	3.97256	101.994801	99.540322	100	0	0	168319.8655	
		168640.2487	2.901718	19864.41261	0.520482	7.620147	3.966132	102.35721	99.762523	100	0	0	168918.0307	
		169240.487	2.901366	19948.56547	0.520845	7.619356	3.968491	101.904937	99.461796	100	0	0	169515.2803	
		169840.4883	2.908021	19789.68601	0.520923	7.618888	3.96884	101.536221	99.682563	100	0	0	170113.4663	
		170440.4926	2.903824	19917.96226	0.520204	7.6196	3.963736	101.938573	99.639348	100	0	0	170716.7259	
		171040.49	2.90646	19776.20143	0.520882	7.618447	3.9683	101.838426	99.575292	100	0	0	171319.5559	
		171640.7383	2.902684	19913.9825	0.520559	7.618536	3.965882	102.278802	99.782028	100	0	0	171917.3712	
		172240.9966	2.902477	19875.38675	0.520941	7.617771	3.968392	102.021823	99.496423	100	0	0	172515.0397	
		172840.9999	2.901411	19911.23287	0.521176	7.617276	3.969933	102.269332	99.827144	100	0	0	173118.4683	
		173441.2383	2.907006	19800.31838	0.521104	7.61734	3.969414	101.953031	99.481774	100	0	0	173721.7087	
		174041.2416	2.906515	19769.52005	0.521097	7.61691	3.969141	102.285321	99.858599	100	0	0	174319.3879	
		174641.4819	2.903116	19914.30495	0.521258	7.616831	3.970328	101.775941	99.417277	100	0	0	174917.9373	
		175241.4872	2.906671	19763.00286	0.522062	7.615438	3.975713	102.162356	99.899044	100	0	0	175515.9335	
		175841.7486	2.908369	19739.34168	0.521732	7.615496	3.973235	101.93104	99.309711	100	0	0	176119.0431	
		176441.9899	2.901942	19800.43065	0.521083	7.616107	3.968608	102.379293	99.765261	100	0	0	176722.2895	
		177042.2332	2.906857	19682.59943	0.521869	7.614841	3.973939	102.538601	99.551175	100	0	0	177320.4036	
		177642.4936	2.9024	19797.11345	0.52107	7.615582	3.968239	102.625973	99.793663	100	0	0	177918.2802	
		178242.7419	2.901545	19863.54286	0.520744	7.615772	3.965859	102.291172	99.623004	100	0	0	178516.2326	
		178842.9872	2.9013	19794.55051	0.521298	7.614871	3.969603	102.260726	99.754573	100	0	0	179119.3839	
		179443.2446	2.902269	19813.54649	0.521102	7.615058	3.968212	102.414822	99.57301	100	0	0	179722.5307	
		180043.2499	2.901963	19826.71964	0.520799	7.61574	3.96626	101.942519	99.680705	100	0	0	180320.9884	
		180643.4942	2.900993	19862.94338	0.521946	7.613777	3.973973	102.479718	99.725794	100	0	0	180918.7964	
		181243.7375	2.905906	19775.10162	0.520466	7.616058	3.96388	102.012484	99.602814	100	0	0	181521.5715	
		181843.9969	2.899834	19841.75649	0.521091	7.614963	3.968073	102.086589	99.757097	100	0	0	182124.0389	
		182444.2382	2.90168	19848.86351	0.521321	7.614515	3.969598	102.209929	99.51601	100	0	0	182721.5606	
		183044.2445	2.901817	19822.64636	0.521153	7.614658	3.968386	102.345932	99.846574	100	0	0	183319.1869	
		183644.4829	2.907209	19719.26156	0.522045	7.613608	3.974637	101.843902	99.485016	100	0	0	183917.8101	
		184244.7592	2.902476	19742.34398	0.521414	7.6143	3.970188	102.424062	99.761928	100	0	0	184521.3933	
		184844.9985	2.905688	19742.79496	0.521298	7.61437	3.969348	101.815137	99.441052	100	0	0	185125.0442	
		185445.2519	2.900692	19851.85577	0.521018	7.614477	3.967267	102.34898	99.83753	100	0	0	185723.6292	
		186045.4962	2.903003	19848.55312	0.521453	7.614096	3.970377	102.541209	99.432448	100	0	0	186321.9208	
		186645.4995	2.902062	19830.3498	0.520707	7.615194	3.965273	102.626787	99.713214	100	0	0	186920.2079	
		187245.4988	2.90902	19741.94018	0.521861	7.61349	3.973175	102.076224	99.251197	100	0	0	187519.141	
		187845.7442	2.907635	19716.10538	0.521919	7.613345	3.973538	102.439815	99.833521	100	0	0	188122.9756	
		188445.9865	2.905358	19749.84422	0.521244	7.613394	3.968426	102.800487	99.956256	100	0	0	188727.0179	
		189046.2488	2.909582	19633.15573	0.521991	7.610309	3.972502	102.104614	99.569018	100	0	0	189324.9582	
		189646.4912	2.906308	19722.37315	0.521368	7.611393	3.968327	102.217507	99.704431	100	0	0	189923.0392	
		190246.7525	2.78722	22308.36444	0.502026	7.640515	3.827073	102.235565	99.534407	100	0	0	190521.0145	
		191447.0011	0.311628	49898.46065	0.123344	8.209798	1.009504	102.919122	96.348424	60.483871	0	0	154093.8927	"weird glitch, RPMs increased, power consumption dropped, stopped for a moment to make sure impeller still on, new fine file created, appears water not moving, but impeller is spinning, lowered to 50% speed after more checks, making more noise, definitely not moving water, found motor direction reversed"
		192047.2415	1.282465	14685.5487	0.319759	7.905777	2.527938	102.467332	99.237085	50	0	0	330.502276	"impeller fell off, must have been loose, impeller put back on and motor running fine, set power to 50% for the weekend, +2days 5 hours for total time"
		192647.2458	1.285452	14758.60467	0.319626	7.907976	2.527593	101.984974	99.545439	50	0	0	929.010204	
		193247.2551	1.294195	14689.11823	0.319833	7.907775	2.529168	102.60565	99.862657	50	0	0	1527.094955	
		193847.5004	1.283184	14713.52605	0.319669	7.90885	2.528216	102.156652	99.526488	50	0	0	2124.944404	
		194447.7448	1.289445	14724.63639	0.319332	7.908797	2.525531	102.941843	100.023914	50	0	0	2728.056569	
		195047.9921	1.303156	14720.73666	0.319574	7.908646	2.5274	102.38001	99.528622	50	0	0	3331.273623	
		195648.2384	1.28723	14706.96214	0.31951	7.908636	2.526888	102.606497	99.992269	50	0	0	3930.149656	
		196248.2508	1.293274	14691.5521	0.319735	7.908329	2.528567	102.26596	99.642672	50	0	0	4528.068652	
		196848.4991	1.289286	14682.97516	0.319372	7.909012	2.525919	102.027576	99.660352	50	0	0	5126.280088	
		197448.7444	1.288725	14647.63256	0.319465	7.909507	2.526812	102.679948	99.909361	50	0	0	5729.038115	
		198048.9888	1.272961	14630.94709	0.31961	7.90989	2.528078	102.443619	99.577214	50	0	0	6331.733832	
		198648.9881	1.297593	14655.90382	0.319581	7.9102	2.527948	103.042408	99.968804	50	0	0	6929.297384	
		199249.2434	1.299039	14661.20333	0.319708	7.91002	2.528894	102.53262	99.549464	50	0	0	7527.250348	
		199849.2517	1.303331	14689.1853	0.31953	7.910283	2.527574	102.501082	99.786604	50	0	0	8129.849484	
		200449.4911	1.297504	14678.1724	0.319494	7.910433	2.527331	102.381819	99.838442	50	0	0	8732.992007	
		201049.4934	1.297228	14679.25507	0.319504	7.910517	2.52744	101.975407	99.599523	50	0	0	9330.984176	
		201649.7367	1.303841	14633.56043	0.319605	7.910341	2.52818	102.349876	99.724034	50	0	0	9928.887001	
		202249.738	1.298632	14642.44045	0.319194	7.910721	2.525051	102.415653	99.546791	50	0	0	10527.39929	
		202849.9984	1.289559	14690.07141	0.319453	7.910476	2.527021	102.689483	99.783336	50	0	0	11130.69182	
		203450.2367	1.287114	14665.40574	0.319339	7.910473	2.526124	103.118436	99.805119	50	0	0	11734.37795	
		204050.243	1.279255	14678.13993	0.319115	7.910897	2.524485	102.417071	99.702361	50	0	0	12332.45405	
		204650.4863	1.297852	14626.97296	0.319154	7.910457	2.524651	102.956031	99.912879	50	0	0	12930.23867	
		205250.7447	1.299991	14659.15405	0.318998	7.910852	2.523546	101.90039	99.529616	50	0	0	13528.6321	
		205850.991	1.29103	14556.00723	0.319354	7.910392	2.526214	102.842893	100.058085	50	0	0	14127.54415	
		206450.9923	1.292752	14661.75415	0.319121	7.910013	2.524253	102.228754	99.533143	50	0	0	14731.10864	
		207051.2337	1.281969	14604.70872	0.318754	7.91099	2.521656	103.609041	100.175899	50	0	0	15333.85183	
		207651.236	1.290439	14636.29725	0.319235	7.910156	2.525201	102.006128	99.507927	50	0	0	15932.17393	
		208251.4953	1.291445	14645.51226	0.318951	7.91048	2.523052	103.138482	100.124439	50	0	0	16530.83549	
		208851.4956	1.291295	14661.63284	0.319191	7.909434	2.524615	102.894638	99.537112	50	0	0	17128.77159	
		209451.742	1.293633	14592.54376	0.319096	7.909541	2.523904	103.688908	99.856355	50	0	0	17731.74323	
		210051.9853	1.288798	14573.27331	0.319199	7.909089	2.524573	103.730408	99.840365	50	0	0	18334.97933	
		210651.9856	1.28376	14635.64532	0.319138	7.909108	2.524098	102.930394	99.713018	50	0	0	18934.35581	
		211251.9849	1.267847	14602.83662	0.319243	7.909515	2.525056	103.483191	99.850452	50	0	0	19533.82247	
		211851.9872	1.299396	14610.61606	0.319184	7.909126	2.524468	103.151748	99.641499	50	0	0	20132.37768	
		212452.2326	1.284783	14631.24823	0.319298	7.90948	2.525477	103.018189	99.829773	50	0	0	20730.1907	
		213052.2329	1.28761	14572.62728	0.319283	7.909031	2.525217	103.505062	99.770622	50	0	0	21328.53011	
		213652.2462	1.285079	14614.65313	0.319168	7.909297	2.524391	102.891842	99.571584	50	0	0	21932.47892	
		214252.2445	1.275447	14575.40525	0.319196	7.909601	2.524714	103.719212	100.152401	50	0	0	22536.78069	
		214852.4779	1.28582	14587.60522	0.319495	7.908872	2.526841	102.90603	99.600745	50	0	0	23135.23702	
		215452.4872	1.287623	14542.37988	0.319245	7.909721	2.525139	102.881339	99.745674	50	0	0	23733.10532	
		216052.4905	1.287013	14614.23994	0.318985	7.910555	2.523346	103.55314	99.977636	50	0	0	24331.09215	
		216652.4908	1.287991	14560.02434	0.319437	7.910448	2.526887	102.770597	99.586926	50	0	0	24929.04183	
		217252.4921	1.29556	14556.75633	0.31944	7.910644	2.526977	103.515219	99.943491	50	0	0	25532.18266	
		217852.7345	1.290739	14522.97971	0.319547	7.910898	2.527903	102.711551	99.632504	50	0	0	26135.63521	
		218452.9968	1.27552	14553.86066	0.319247	7.911574	2.525742	102.599945	100.154357	50	0	0	26733.15581	
		219053.2371	1.003671	29884.53247	0.260141	8.001108	2.067997	102.527894	99.804304	50	0	0	27330.75723	impeller fell off again
		219653.2414	0.247759	68029.35731	0.111002	8.225382	0.913037	103.13643	100.484816	50	0	0	27933.75814	
		220253.4818	0.246957	68025.64571	0.110912	8.22436	0.912179	102.766914	99.455604	50	0	0	28537.07082	
		220853.4871	0.245843	68094.5116	0.110738	8.22446	0.910756	103.241156	100.311866	50	0	0	29135.29619	
		221453.4874	0.245746	68100.03049	0.110728	8.224467	0.910677	103.412639	100.113635	50	0	0	29734.0024	
		222053.4877	0.245799	68071.11414	0.110676	8.224406	0.910242	103.374144	99.834548	50	0	0	30332.79114	
		222653.7441	0.245295	68126.76816	0.110563	8.22449	0.909327	104.164909	100.282294	50	0	0	30935.32002	
		223253.9904	0.242401	68174.86651	0.110254	8.225014	0.906838	103.78908	100.018944	50	0	0	31538.39415	
		223854.2347	0.24263	68192.31608	0.110255	8.225249	0.906876	103.524212	99.683182	50	0	0	32137.09292	
		224454.238	0.24098	68238.53236	0.110019	8.225813	0.904992	103.658064	100.320861	50	0	0	32735.3508	
		225054.4824	0.241323	68225.64385	0.109985	8.225948	0.904729	103.389839	99.974002	50	0	0	33333.76157	
		225654.4967	0.243082	68208.84341	0.11011	8.226012	0.905768	104.567711	99.776423	50	0	0	33931.88901	
		226254.742	0.241375	68244.38367	0.110037	8.226319	0.905202	104.696842	100.192962	50	0	0	34535.36619	
		226854.7433	0.241177	68265.57211	0.10991	8.226754	0.904205	104.676758	99.882635	50	0	0	35138.24466	
		227454.7447	0.240286	68270.60391	0.1099	8.226997	0.904143	103.464612	99.736043	50	0	0	35736.65238	
		228054.984	0.239601	68289.80033	0.109832	8.22714	0.903606	104.302664	100.362756	50	0	0	36334.15126	
		228654.9873	0.24043	68278.72388	0.109894	8.227309	0.904133	103.378903	99.894041	50	0	0	36932.00717	
		229255.2467	0.240851	68259.99349	0.110003	8.227365	0.905038	103.242618	99.640998	50	0	0	37535.85413	
		229855.49	0.240264	68301.13664	0.109817	8.22799	0.903572	103.582247	100.10609	50	0	0	38139.27863	
		230455.4913	0.239563	68308.20312	0.109644	8.228461	0.902204	103.473364	99.895964	50	0	0	38737.04545	
		231055.7326	0.23851	68375.48103	0.109554	8.228813	0.9015	103.394353	99.772577	50	0	0	39335.34336	
		231655.738	0.2386	68346.18726	0.109717	8.229004	0.902861	103.927332	99.900038	50	0	0	39934.08405	
		232255.9963	0.238171	68388.03112	0.109613	8.229185	0.902029	104.415606	100.179712	50	0	0	40533.11407	
		232855.9976	0.236323	68416.56034	0.109434	8.229746	0.900613	103.551165	99.776429	50	0	0	41135.91529	
		233456.2369	0.235141	68569.43773	0.109194	8.229385	0.898595	103.560181	99.900934	50	0	0	41739.18184	
		234056.5023	0.233092	68752.72996	0.109035	8.228741	0.897223	103.698433	100.112429	50	0	0	42337.15611	
		234656.7446	0.229494	69029.36983	0.108722	8.228444	0.894615	103.56815	99.86603	50	0	0	42935.06195	
		235256.7459	0.227824	69076.38834	0.108525	8.227923	0.892933	103.659388	99.893321	50	0	0	43537.70393	
		235856.9752	0.229455	69009.29334	0.108662	8.227019	0.893966	104.189869	100.04984	50	0	0	44141.18636	
		236456.9886	0.229139	69012.10157	0.108691	8.226574	0.894154	104.765889	99.924856	50	0	0	44739.4319	
		237056.9929	0.228106	69052.07663	0.108596	8.226362	0.893353	104.045929	99.770964	50	0	0	45337.32108	
		237657.2362	0.227519	69083.49118	0.10847	8.226226	0.8923	104.168291	100.205181	50	0	0	45935.50824	
		238257.4955	0.226818	69090.01026	0.108412	8.226165	0.891817	103.871411	100.155355	50	0	0	46538.65723	
		238857.4969	0.225547	69028.40938	0.10827	8.226244	0.890655	103.69721	99.858681	50	0	0	47141.91458	
		239457.7392	0.220463	68805.26254	0.107427	8.227299	0.883828	103.854416	99.962921	50	0	0	47739.89691	
		240057.7425	0.204625	67994.95021	0.104652	8.231457	0.861435	104.634368	100.176437	50	0	0	48337.70691	
		240657.9868	0.203313	67961.31221	0.10458	8.231325	0.860829	105.117281	100.095825	50	0	0	48935.88018	
		241258.2462	0.203725	68006.23579	0.104598	8.231185	0.860962	104.727275	99.936569	50	0	0	49538.6531	
		241858.2465	0.203035	68062.43564	0.104408	8.231267	0.859412	103.903782	99.864482	50	0	0	50141.43225	
		242458.4918	0.202256	68057.17921	0.104371	8.230912	0.85907	104.008819	100.22643	50	0	0	50739.32095	
		243058.7352	0.206552	68210.20662	0.104988	8.229609	0.864008	104.110549	100.128806	50	0	0	51336.72278	
		243658.7495	0.201148	68113.65008	0.104299	8.230558	0.858435	104.35057	99.995472	50	0	0	51940.12477	
		244258.7378	0.200625	68146.82978	0.104163	8.230593	0.857327	104.162717	99.872027	50	0	0	52543.72297	
		244858.7521	0.200313	68188.35902	0.104222	8.230411	0.857793	104.15698	99.985311	50	0	0	53142.05906	
		245458.9975	0.199363	68216.84895	0.104227	8.230295	0.857819	105.076684	99.983535	50	0	0	53739.76987	
		246059.2408	0.190756	65542.51499	0.102794	8.232382	0.846237	104.717046	100.205572	50	0	0	54337.75764	
		246659.2411	0.174861	61421.26666	0.100557	8.235652	0.828155	104.425283	100.008323	50	0	0	54940.72798	
