LabVIEW Measurement	
Writer_Version	2
Reader_Version	2
Separator	Tab
Decimal_Separator	.
Multi_Headings	Yes
X_Columns	One
Time_Pref	Absolute
Operator	Will
Date	2012/07/25
Time	11:16:55.7422046661376953125
***End_of_Header***	
	
Channels	11											
Samples	120	120	120	120	120	120	120	120	120	120	120	
Date	2012/07/25	2012/07/25	2012/07/25	2012/07/25	2012/07/25	2012/07/25	2012/07/25	2012/07/25	2012/07/25	2012/07/25	2012/07/25	
Time	16:29:33.745204925537109375	16:29:33.745204925537109375	16:29:33.745204925537109375	16:29:33.745204925537109375	16:29:33.745204925537109375	16:29:33.745204925537109375	16:29:33.745204925537109375	16:29:33.7422046661376953125	16:29:33.745204925537109375	16:29:33.745204925537109375	16:29:33.7422046661376953125	
X_Dimension	Time	Time	Time	Time	Time	Time	Time	Time	Time	Time	Time	
X0	0.0000000000000000E+0	0.0000000000000000E+0	0.0000000000000000E+0	0.0000000000000000E+0	0.0000000000000000E+0	0.0000000000000000E+0	0.0000000000000000E+0	0.0000000000000000E+0	0.0000000000000000E+0	0.0000000000000000E+0	0.0000000000000000E+0	
Delta_X	1.000000	1.000000	1.000000	1.000000	1.000000	1.000000	1.000000	1.000000	1.000000	1.000000	1.000000	
***End_of_Header***												
X_Value	Motor 1 Power (Watts) (Collected)	Motor 1 RPM (Collected)	MC1 Current (Amps) (Collected)	MC1 Voltage (V) (Collected)	MC1 Power (Watts) (Collected)	Tank Temp (F) (Collected)	Motor 1 Temp (F) (Collected)	Power Setting (%) (Collected)	Error Status (Collected)	Error Code (Collected)	Elapsed Time (s) (Collected)	Comment
0.000000	2.902489	20012.432906	0.520549	7.613039	3.962961	102.324028	100.089274	100.000000	0.000000	0.000000	190146.006730	weird glitch, RPMs increased, power consumption dropped, stopped for a moment to make sure impeller still on, new fine file created, appears water not moving, but impeller is spinning, lowered to 50% speed after more checks, making more noise, definitely not moving water, found motor direction reversed
1.000000	2.913369	19387.832681	0.523264	7.608916	3.981473	102.351913	100.068123	100.000000	0.000000	0.000000	190156.248315
2.000000	2.912568	19269.981039	0.525597	7.606193	3.997794	102.185564	100.066200	100.000000	0.000000	0.000000	190166.248888
3.000000	2.893904	19753.119014	0.523922	7.607771	3.985876	102.304797	100.057547	100.000000	0.000000	0.000000	190176.501474
4.000000	2.907820	19531.422197	0.524643	7.606498	3.990695	102.178833	100.029666	100.000000	0.000000	0.000000	190186.502046
5.000000	2.907582	19508.110642	0.523943	7.607720	3.986011	102.155756	100.018129	100.000000	0.000000	0.000000	190196.503618
6.000000	2.908121	19724.316565	0.520083	7.612530	3.959144	102.228834	100.003708	100.000000	0.000000	0.000000	190206.754204
7.000000	2.906624	19639.827803	0.521589	7.611410	3.970024	102.378837	100.008515	100.000000	0.000000	0.000000	190216.994790
8.000000	2.908042	19641.992118	0.518258	7.615991	3.947052	102.384606	99.973904	100.000000	0.000000	0.000000	190227.006362
9.000000	2.903578	19468.161182	0.520867	7.611486	3.964575	102.316336	99.940255	100.000000	0.000000	0.000000	190237.246948
10.000000	2.905412	19719.857363	0.523391	7.608102	3.982015	102.258642	99.955637	100.000000	0.000000	0.000000	190247.253520
11.000000	2.914093	19614.646263	0.520910	7.611384	3.964845	102.366336	99.921988	100.000000	0.000000	0.000000	190257.498106
12.000000	2.907308	19912.321482	0.520698	7.613013	3.964078	102.159602	99.889300	100.000000	0.000000	0.000000	190267.746693
13.000000	2.895376	19787.361698	0.520231	7.613624	3.960844	102.302874	99.894107	100.000000	0.000000	0.000000	190278.006279
14.000000	2.896979	20006.006347	0.523773	7.606906	3.984293	102.274989	99.866226	100.000000	0.000000	0.000000	190288.239864
15.000000	2.888494	19982.724624	0.521164	7.611410	3.966795	102.218257	99.855650	100.000000	0.000000	0.000000	190298.252438
16.000000	2.926875	19162.888894	0.520825	7.613013	3.965047	102.106716	99.822001	100.000000	0.000000	0.000000	190308.255009
17.000000	2.928782	19560.626283	0.522161	7.610443	3.973878	102.141332	99.837383	100.000000	0.000000	0.000000	190318.501595
18.000000	2.920172	19583.378920	0.523646	7.608865	3.984351	102.227872	99.825846	100.000000	0.000000	0.000000	190328.504168
19.000000	2.905750	19917.678702	0.521249	7.612250	3.967879	102.090370	99.789312	100.000000	0.000000	0.000000	190338.757754
20.000000	2.909806	19887.834328	0.520167	7.612148	3.959591	102.204795	99.797965	100.000000	0.000000	0.000000	190348.997340
21.000000	2.903524	19826.961133	0.521589	7.611792	3.970223	102.174987	99.763354	100.000000	0.000000	0.000000	190359.002912
22.000000	2.899477	20022.507571	0.515756	7.620368	3.930248	101.987484	99.733550	100.000000	0.000000	0.000000	190369.241498
23.000000	2.887237	19924.211382	0.520867	7.612097	3.964893	101.983637	99.712399	100.000000	0.000000	0.000000	190379.249070
24.000000	2.883469	19982.874284	0.522310	7.609832	3.974689	101.914405	99.702785	100.000000	0.000000	0.000000	190389.266643
25.000000	2.872824	20153.030221	0.517198	7.618510	3.940278	101.880751	99.707592	100.000000	0.000000	0.000000	190399.504229
26.000000	2.880475	20045.288310	0.519616	7.614565	3.956650	101.966329	99.656637	100.000000	0.000000	0.000000	190409.747815
27.000000	2.895395	20103.128429	0.519510	7.614820	3.955974	101.937483	99.652791	100.000000	0.000000	0.000000	190419.758388
28.000000	2.914587	19666.313819	0.520486	7.612530	3.962212	101.978830	99.662406	100.000000	0.000000	0.000000	190429.995973
29.000000	2.906736	19852.236578	0.523264	7.608712	3.981366	102.007676	99.638370	100.000000	0.000000	0.000000	190440.007545
30.000000	2.908147	19470.116909	0.524622	7.606397	3.990480	102.031715	99.597991	100.000000	0.000000	0.000000	190450.242131
31.000000	2.900454	19876.104549	0.516222	7.617899	3.932529	102.016330	99.582608	100.000000	0.000000	0.000000	190460.251703
32.000000	2.904015	19700.161450	0.521186	7.611944	3.967235	101.996138	99.609528	100.000000	0.000000	0.000000	190470.500289
33.000000	2.898661	19989.191554	0.519128	7.614286	3.952790	101.967291	99.577801	100.000000	0.000000	0.000000	190480.507862
34.000000	2.950949	19059.397709	0.528842	7.600722	4.019584	101.860558	99.570110	100.000000	0.000000	0.000000	190490.738447
35.000000	2.920505	19530.594315	0.523794	7.607822	3.984934	101.819211	99.538383	100.000000	0.000000	0.000000	190500.752020
36.000000	2.927190	19583.495757	0.524325	7.606218	3.988128	101.957675	99.508579	100.000000	0.000000	0.000000	190510.766593
37.000000	2.902879	19920.735415	0.519022	7.614362	3.952022	101.980753	99.540306	100.000000	0.000000	0.000000	190521.008178
38.000000	2.899708	19477.905559	0.520952	7.611817	3.965393	101.939406	99.495119	100.000000	0.000000	0.000000	190531.244764
39.000000	2.898802	19638.322286	0.523201	7.608382	3.980709	101.915367	99.482621	100.000000	0.000000	0.000000	190541.257337
40.000000	2.898065	19879.362923	0.523094	7.609018	3.980235	101.858635	99.495119	100.000000	0.000000	0.000000	190551.496922
41.000000	2.936034	19125.531654	0.517559	7.616907	3.942195	101.995176	99.503772	100.000000	0.000000	0.000000	190561.506495
42.000000	2.902696	19804.867397	0.523201	7.609450	3.981268	101.950945	99.452817	100.000000	0.000000	0.000000	190571.747080
43.000000	2.902991	19696.126687	0.520740	7.611155	3.963434	102.424030	99.409554	100.000000	0.000000	0.000000	190581.756653
44.000000	2.878165	20556.021133	0.517665	7.616321	3.942700	102.466338	99.443203	100.000000	0.000000	0.000000	190591.997239
45.000000	2.899524	20180.520608	0.520401	7.613344	3.961990	102.710573	99.441280	100.000000	0.000000	0.000000	190602.006811
46.000000	2.918433	19459.441020	0.525258	7.604590	3.994371	102.437491	99.380711	100.000000	0.000000	0.000000	190612.246397
47.000000	2.924894	19519.989268	0.519298	7.614769	3.954333	102.817306	99.364367	100.000000	0.000000	0.000000	190622.256969
48.000000	2.922163	19722.525155	0.522904	7.609221	3.978889	102.487492	99.391287	100.000000	0.000000	0.000000	190632.497555
49.000000	2.912682	19605.468093	0.521376	7.611512	3.968463	102.373067	99.373981	100.000000	0.000000	0.000000	190642.505127
50.000000	2.919246	19339.373715	0.525428	7.603954	3.995327	102.656726	99.313412	100.000000	0.000000	0.000000	190652.742713
51.000000	2.931873	19405.549121	0.526743	7.602986	4.004817	102.464415	99.311489	100.000000	0.000000	0.000000	190662.751286
52.000000	2.897200	19912.809092	0.520549	7.613344	3.963120	102.437491	99.302836	100.000000	0.000000	0.000000	190672.754858
53.000000	2.935927	19447.186676	0.523455	7.608356	3.982632	102.399029	99.315335	100.000000	0.000000	0.000000	190683.001444
54.000000	2.919285	19344.109300	0.521334	7.612275	3.968538	102.469223	99.314373	100.000000	0.000000	0.000000	190693.242029
55.000000	2.928530	19930.161743	0.522819	7.608356	3.977791	102.678842	99.257650	100.000000	0.000000	0.000000	190703.256602
56.000000	2.867175	20460.788461	0.522522	7.610646	3.976728	102.330759	99.293222	100.000000	0.000000	0.000000	190713.497188
57.000000	2.914142	19569.463957	0.525237	7.606040	3.994971	102.471146	99.270148	100.000000	0.000000	0.000000	190723.508760
58.000000	2.912303	19765.593823	0.520125	7.613548	3.959996	102.496146	99.241306	100.000000	0.000000	0.000000	190733.743346
59.000000	2.894103	20241.251757	0.518513	7.615405	3.948687	102.428837	99.219193	100.000000	0.000000	0.000000	190743.758919
60.000000	2.879594	20148.772939	0.518980	7.615151	3.952108	102.463453	99.244190	100.000000	0.000000	0.000000	190753.991504
61.000000	2.938426	19461.418429	0.525746	7.605557	3.998589	102.364413	99.221116	100.000000	0.000000	0.000000	190764.002077
62.000000	2.909246	19960.906391	0.521589	7.610646	3.969626	102.376914	99.215348	100.000000	0.000000	0.000000	190774.004649
63.000000	2.015439	40927.461336	0.358948	7.854746	2.819443	102.431722	99.158624	100.000000	0.000000	0.000000	190784.254235
64.000000	1.424310	52868.621269	0.272346	7.984481	2.174541	102.475954	99.198042	100.000000	0.000000	0.000000	190794.512822
65.000000	0.640606	66494.085401	0.164279	8.151268	1.339084	102.382683	99.147087	100.000000	0.000000	0.000000	190804.750407
66.000000	0.457236	69298.038873	0.140227	8.185649	1.147847	102.680765	99.148049	100.000000	0.000000	0.000000	190814.752979
67.000000	0.429183	69641.484845	0.136430	8.192647	1.117724	102.512493	99.159586	100.000000	0.000000	0.000000	190824.759552
68.000000	0.426954	69725.824066	0.136430	8.192087	1.117647	102.527878	99.172084	100.000000	0.000000	0.000000	190835.007138
69.000000	0.411189	69911.251068	0.134733	8.195523	1.104210	102.753843	99.142280	100.000000	0.000000	0.000000	190845.007710
70.000000	0.412880	70091.060964	0.133397	8.196388	1.093374	102.658649	99.110553	100.000000	0.000000	0.000000	190855.244296
71.000000	0.407871	70035.886104	0.133736	8.195294	1.096009	101.712479	99.110553	100.000000	0.000000	0.000000	190865.254868
72.000000	0.403201	70055.886766	0.134288	8.195014	1.100491	102.511531	99.162470	100.000000	0.000000	0.000000	190875.497454
73.000000	0.401576	70186.402044	0.131509	8.197991	1.078112	102.843268	99.155740	100.000000	0.000000	0.000000	190885.507027
74.000000	0.395829	70266.866270	0.131615	8.198729	1.079079	102.826921	99.210541	100.000000	0.000000	0.000000	190895.509599
75.000000	2.178886E-6	0.000000	0.053901	8.316020	0.448239	103.151927	99.175930	0.000000	0.000000	0.000000	190905.754185
76.000000	0.447273	69218.858154	0.138742	8.187965	1.136015	104.045212	99.237460	100.000000	0.000000	0.000000	190915.988770
77.000000	0.461593	69094.325531	0.136833	8.190789	1.120771	104.174060	99.322065	100.000000	0.000000	0.000000	190926.001343
78.000000	0.407803	70092.534623	0.132782	8.197151	1.088433	103.913479	99.348023	100.000000	0.000000	0.000000	190936.001915
79.000000	0.397082	70182.279697	0.131679	8.198500	1.079570	104.199061	99.444164	100.000000	0.000000	0.000000	190946.014487
80.000000	0.390814	70312.089770	0.131721	8.198958	1.079978	103.838477	99.534537	100.000000	0.000000	0.000000	190956.254073
81.000000	0.400316	70288.273865	0.132040	8.197711	1.082422	103.866363	99.603759	100.000000	0.000000	0.000000	190966.261645
82.000000	0.399512	70127.395435	0.132867	8.196490	1.089041	103.259621	99.688364	100.000000	0.000000	0.000000	190976.502231
83.000000	0.385706	70355.687814	0.131234	8.199925	1.076105	103.875017	99.684518	100.000000	0.000000	0.000000	190986.755818
84.000000	0.363725	70718.729279	0.128116	8.204022	1.051064	103.775976	99.797004	100.000000	0.000000	0.000000	190996.994403
85.000000	0.374679	70618.567233	0.127861	8.202979	1.048842	103.947133	99.780660	100.000000	0.000000	0.000000	191007.009976
86.000000	0.355170	70824.594110	0.127225	8.206338	1.044050	104.130790	99.738357	100.000000	0.000000	0.000000	191017.242561
87.000000	0.361194	70847.753162	0.126695	8.206669	1.039740	104.172137	99.747010	100.000000	0.000000	0.000000	191027.243134
88.000000	0.349595	70890.358230	0.126037	8.205626	1.034213	103.872132	99.732589	100.000000	0.000000	0.000000	191037.251706
89.000000	0.350284	70882.042125	0.126695	8.205193	1.039553	103.209620	99.763354	100.000000	0.000000	0.000000	191047.502292
90.000000	0.354771	70894.798065	0.126122	8.206058	1.034963	103.948095	99.739319	100.000000	0.000000	0.000000	191057.755878
91.000000	0.432335	69594.692101	0.133185	8.196973	1.091713	103.918287	99.617219	100.000000	0.000000	0.000000	191067.998464
92.000000	0.379040	70499.081985	0.123237	8.210334	1.011819	104.000019	99.538383	100.000000	0.000000	0.000000	191078.014037
93.000000	0.344005	71010.424973	0.125146	8.208578	1.027272	102.856730	99.398978	100.000000	0.000000	0.000000	191088.245623
94.000000	2.098816E-6	0.000000	0.053667	8.316402	0.446319	102.979809	99.409554	0.000000	0.000000	0.000000	191098.506209
95.000000	2.098667E-6	0.000000	0.053519	8.315944	0.445060	102.835575	98.424103	0.000000	0.000000	0.000000	191108.759796
96.000000	2.132813E-6	0.000000	0.053519	8.315562	0.445040	102.891346	96.843537	0.000000	0.000000	0.000000	191119.002382
97.000000	0.194427	50503.369482	0.110405	8.230743	0.908715	102.751920	94.582289	20.000000	0.000000	0.000000	191129.259968
98.000000	0.259673	23900.283380	0.140036	8.186616	1.146420	102.849037	91.659588	20.000000	0.000000	0.000000	191139.494554
99.000000	0.177011	51587.086994	0.109323	8.231965	0.899945	102.791344	88.702275	20.000000	0.000000	0.000000	191149.503126
100.000000	0.210286	27415.803147	0.141160	8.183689	1.155210	102.569225	97.660740	20.000000	0.000000	0.000000	191159.747712
101.000000	0.202478	8301.105123	0.170388	8.138951	1.386778	102.668265	99.288415	20.000000	0.000000	0.000000	191169.751284
102.000000	0.357490	70699.735544	0.127373	8.205346	1.045142	102.539416	99.355714	100.000000	0.000000	0.000000	191179.766857
103.000000	0.344007	70917.043178	0.125613	8.206516	1.030844	102.579802	99.370135	100.000000	0.000000	0.000000	191190.004443
104.000000	0.354687	70800.633357	0.127670	8.204252	1.047439	102.691342	99.293222	100.000000	0.000000	0.000000	191200.246028
105.000000	0.213471	45449.720450	0.118359	8.217230	0.972582	102.551917	99.212463	20.000000	0.000000	0.000000	191210.255601
106.000000	0.322671	65590.995021	0.121583	8.213362	0.998604	102.391337	99.263418	50.000000	0.000000	0.000000	191220.505188
107.000000	0.313321	65836.312342	0.120056	8.216085	0.986388	102.430761	99.246113	50.000000	0.000000	0.000000	191230.754773
108.000000	0.308217	65916.884432	0.120035	8.215830	0.986183	102.568263	99.230730	50.000000	0.000000	0.000000	191241.005360
109.000000	0.309293	65979.031988	0.119716	8.215652	0.983548	102.497108	99.190351	50.000000	0.000000	0.000000	191251.248946
110.000000	0.311509	66023.757295	0.119144	8.216568	0.978952	102.408645	99.225923	50.000000	0.000000	0.000000	191261.257518
111.000000	2.149892E-6	0.000000	0.053879	8.315638	0.448042	102.426914	99.259573	0.000000	0.000000	0.000000	191271.501104
112.000000	2.099489E-6	0.000000	0.053604	8.315435	0.445738	102.300951	98.525052	0.000000	0.000000	0.000000	191281.509676
113.000000	2.115260E-6	0.000000	0.053540	8.315384	0.445207	102.288450	96.346486	0.000000	0.000000	0.000000	191291.740262
114.000000	2.037708E-6	0.000000	0.053773	8.315435	0.447149	102.360567	94.206376	0.000000	0.000000	0.000000	191301.752834
115.000000	2.108041E-6	0.000000	0.053540	8.315409	0.445208	102.355759	92.235475	0.000000	0.000000	0.000000	191312.000421
116.000000	0.106058	0.000000	0.137469	8.185140	1.125206	102.330759	90.357832	10.000000	0.000000	0.000000	191320.261893
117.000000	0.158142	0.000000	0.141627	8.179490	1.158434	102.296143	90.353025	0.000000	0.000000	0.000000	0.000000
118.000000	0.063678	29411.554121	0.099588	8.247361	0.821336	102.335567	84.708558	10.000000	0.000000	0.000000	1.989114
119.000000	0.093220	0.000000	0.130194	8.193029	1.066685	102.367298	83.283741	10.000000	0.000000	0.000000	7.745443

